* Measurement data measured by REW V5.20.13
* Source: C:\Users\afuyan\Downloads\Freeryder05v2 ssTarget.txt
* Format: Comma/Tab/Space delimited data
* Dated: Mar 25, 2023 4:30:20 PM
* REW Settings:
*  C-weighting compensation: Off
*  Target level: 75.0 dB
* Note: Measurement imported from C:\Users\afuyan\Downloads\Freeryder05v2 ssTarget.txt Format: Comma/Tab/Space delimited data 61 values loaded, 20 Hz to 20,040 Hz log spaced
* Measurement: Freeryder05v2 ssTarget
* Smoothing: 1/3 octave
* Frequency Step: 1/6 octave
* Start Frequency: 20.000 Hz
*
* Freq(Hz) SPL(dB)
20.000000 92.237
22.400000 93.041
25.000000 94.208
28.000000 95.212
31.500000 95.914
35.500000 96.039
40.000000 96.062
45.000000 96.052
50.000000 97.646
56.000000 98.455
63.000000 98.493
71.000000 97.420
80.000000 96.283
90.000000 95.821
100.000000 95.777
112.000000 95.694
125.000000 95.359
140.000000 94.799
160.000000 94.004
180.000000 93.276
200.000000 92.638
224.000000 91.986
250.000000 91.413
280.000000 90.913
315.000000 90.524
355.000000 90.277
400.000000 90.159
450.000000 90.127
500.000000 90.136
560.000000 90.162
630.000000 90.189
710.000000 90.212
800.000000 90.239
900.000000 90.298
1000.000000 90.412
1120.000000 90.634
1250.000000 91.019
1400.000000 91.606
1600.000000 92.451
1800.000000 93.141
2000.000000 93.524
2240.000000 93.652
2500.000000 93.474
2800.000000 93.233
3150.000000 93.478
3550.000000 94.408
4000.000000 95.294
4500.000000 94.797
5000.000000 93.432
5600.000000 92.035
6300.000000 91.319
7100.000000 90.996
8000.000000 90.747
9000.000000 90.446
10000.000000 90.027
11200.000000 89.326
12500.000000 88.374
14000.000000 87.172
16000.000000 85.617
18000.000000 84.304
20000.000000 83.701
